Area (cm2),1.33,,
Electrolyte ,KHSO4,,
Conc (M),1,,
Loading (mg/cm2),0.6,,
pH initial vs final,0.2,0.62,
ZIR (Ohm),4.231,3.931,
Ref,Ag/AgCl,,
V,,,
CO2 Flow Rate input vs output (mL/min),10,10,
Electrolyte Flow Rate (mL/min),1,,
Type,CP,,
,,,
t (s),i (mA),Ewe (V),Ecell (V)
3.00E+01,0,-0.060806673,0.5556823
3.00E+01,-72.06266,-0.60840803,0.9472838
3.00E+01,-105.45128,-1.367731,1.2591975
3.50E+01,-132.90109,-1.5305568,2.2762411
4.00E+01,-132.95451,-1.5175537,2.2999172
4.50E+01,-132.90872,-1.5088416,2.2894022
5.00E+01,-132.96216,-1.50226,2.2950034
5.50E+01,-133.01939,-1.4999348,2.3117039
6.00E+01,-133.01559,-1.4961019,2.3019791
6.50E+01,-132.99268,-1.4963081,2.3126316
7.00E+01,-133.01176,-1.4893674,2.3212225
7.50E+01,-132.96216,-1.4861414,2.3359299
8.00E+01,-132.95834,-1.485103,2.3178892
8.50E+01,-133.01939,-1.4813616,2.3268924
9.00E+01,-133.00414,-1.4787465,2.3319092
9.50E+01,-133.00797,-1.478277,2.3502934
1.00E+02,-132.9736,-1.4754251,2.3622174
1.05E+02,-132.9278,-1.4720578,2.3851719
1.10E+02,-132.9507,-1.4689885,2.3950343
1.15E+02,-133.02704,-1.4696604,2.4110131
1.20E+02,-132.93163,-1.4734552,2.3318405
1.25E+02,-132.99651,-1.4695115,2.3348989
1.30E+02,-132.97742,-1.4657053,2.3480599
1.35E+02,-132.98888,-1.4715463,2.3488159
1.40E+02,-133.00414,-1.4697062,2.3462386
1.45E+02,-132.94688,-1.4690839,2.350534
1.50E+02,-132.96596,-1.4695954,2.363111
1.55E+02,-133.02704,-1.4673011,2.3781962
1.60E+02,-132.97742,-1.4682516,2.3930414
1.65E+02,-132.96596,-1.4699658,2.4074049
1.70E+02,-133.00795,-1.4701719,2.3912544
1.75E+02,-132.9507,-1.4715539,2.3566506
1.80E+02,-132.97742,-1.4715234,2.3664098
1.85E+02,-132.99268,-1.4719434,2.3699491
1.90E+02,-132.98888,-1.4742721,2.3575442
1.95E+02,-132.98888,-1.4746348,2.3679905
2.00E+02,-133.00414,-1.4734323,2.3741415
2.05E+02,-132.95834,-1.4773722,2.3668909
2.10E+02,-132.98123,-1.4804913,2.3612897
2.15E+02,-132.92781,-1.4791131,2.3737292
2.20E+02,-132.9736,-1.4774561,2.3697431
2.25E+02,-132.99651,-1.4766582,2.3735573
2.30E+02,-133.0385,-1.4797049,2.382251
2.35E+02,-132.95834,-1.479323,2.3995702
2.40E+02,-133.00797,-1.4766659,2.4104633
2.45E+02,-132.96596,-1.4779487,2.4245865
2.50E+02,-132.95453,-1.4819534,2.3725953
2.55E+02,-132.99651,-1.4824803,2.3758597
2.60E+02,-132.99268,-1.4834003,2.3906357
2.65E+02,-132.9507,-1.4833202,2.3979552
2.70E+02,-133.01559,-1.4859697,2.3807049
2.75E+02,-132.98888,-1.4828659,2.3810828
2.80E+02,-132.9736,-1.4822016,2.3907044
2.85E+02,-132.95451,-1.4834805,2.4026971
2.90E+02,-132.93163,-1.4845915,2.3830073
2.95E+02,-132.94688,-1.4857329,2.3884022
3.00E+02,-132.98123,-1.4844731,2.400979
3.05E+02,-132.9736,-1.4840533,2.4100165
3.10E+02,-132.9278,-1.4861643,2.3914261
3.15E+02,-132.96216,-1.4879588,2.3950343
3.20E+02,-132.92398,-1.4873747,2.4050684
3.25E+02,-132.93163,-1.4883748,2.3959963
3.30E+02,-132.96597,-1.4901921,2.4023879
3.35E+02,-132.99268,-1.4910204,2.4094324
3.40E+02,-132.96596,-1.4898027,2.4199474
3.45E+02,-132.94688,-1.4902683,2.4353421
3.50E+02,-132.93544,-1.494048,2.396615
3.55E+02,-132.98123,-1.4943534,2.4042778
3.60E+02,-132.9507,-1.4932578,2.4133842
3.65E+02,-132.95833,-1.4933531,2.4211845
3.70E+02,-132.98888,-1.4961019,2.4047246
3.75E+02,-133.01559,-1.4963003,2.3980238
3.80E+02,-132.93544,-1.4968311,2.4107726
3.85E+02,-132.99268,-1.4978466,2.4243116
3.90E+02,-132.99268,-1.4988774,2.4280229
3.95E+02,-133.01559,-1.5000303,2.4377475
4.00E+02,-133.01559,-1.4999197,2.444139
4.05E+02,-132.9736,-1.4953192,2.4613893
4.10E+02,-133.01559,-1.4972817,2.4705987
4.15E+02,-133.00032,-1.4995798,2.4695678
4.20E+02,-133.01176,-1.5036496,2.4077141
4.25E+02,-132.96979,-1.500351,2.4233837
4.30E+02,-132.97742,-1.5013856,2.4310811
4.35E+02,-133.00032,-1.5001029,2.4219749
4.40E+02,-132.98505,-1.5047414,2.4340708
4.45E+02,-132.99649,-1.5044284,2.4400156
4.50E+02,-133.01939,-1.5042031,2.4460289
4.55E+02,-132.99268,-1.5031035,2.4589496
4.60E+02,-132.98125,-1.5045161,2.4756157
4.65E+02,-132.98888,-1.5051881,2.4135215
4.70E+02,-132.96979,-1.5082537,2.4124219
4.75E+02,-133.0423,-1.5078299,2.4287789
4.80E+02,-132.99649,-1.5057684,2.4430051
4.85E+02,-133.0652,-1.5052644,2.4262702
4.90E+02,-132.95834,-1.5076238,2.4346893
4.95E+02,-133.00032,-1.5093455,2.4522145
5.00E+02,-132.98506,-1.5095937,2.4625232
5.05E+02,-133.0385,-1.5058638,2.4178512
5.10E+02,-133.03467,-1.5078987,2.427851
5.15E+02,-132.98505,-1.5094868,2.4344831
5.20E+02,-132.96979,-1.5099411,2.4425926
5.25E+02,-132.98506,-1.5097693,2.4189165
5.30E+02,-132.93924,-1.5105749,2.4333835
5.35E+02,-132.92781,-1.5122356,2.4460979
5.40E+02,-132.9507,-1.5136329,2.4347579
5.45E+02,-132.96596,-1.5119301,2.4481251
5.50E+02,-132.92781,-1.5119721,2.4501526
5.55E+02,-132.92398,-1.5082461,2.4687774
5.60E+02,-132.9278,-1.5087271,2.4751003
5.65E+02,-132.96977,-1.5120791,2.4313562
5.70E+02,-132.94307,-1.5153966,2.4366825
5.75E+02,-132.91635,-1.5152477,2.4475067
5.80E+02,-132.95834,-1.5165076,2.457197
5.85E+02,-132.95453,-1.5172024,2.4742067
5.90E+02,-132.95453,-1.5175956,2.4381943
5.95E+02,-132.94307,-1.5162748,2.4391563
6.00E+02,-132.96216,-1.5104604,2.4541731
6.05E+02,-132.9278,-1.5164121,2.4416649
6.10E+02,-132.9278,-1.5165496,2.4519396
6.15E+02,-132.97742,-1.5140756,2.4560976
6.20E+02,-132.92398,-1.5143086,2.4676433
6.25E+02,-132.94307,-1.5158701,2.4581592
6.30E+02,-132.90872,-1.5165343,2.4405997
6.35E+02,-132.90872,-1.5161602,2.4499121
6.40E+02,-132.97742,-1.5191303,2.4578156
6.45E+02,-132.95453,-1.5204628,2.4463727
6.50E+02,-132.90108,-1.5200353,2.4499807
6.55E+02,-132.98886,-1.5168245,2.4636917
6.60E+02,-132.96216,-1.5169238,2.4475067
6.65E+02,-132.92781,-1.5209171,2.4624546
6.70E+02,-132.95834,-1.5227648,2.4723511
6.75E+02,-132.93163,-1.5252273,2.4768527
6.80E+02,-133.00414,-1.5211422,2.4710796
6.85E+02,-133.00797,-1.5244446,2.4539325
6.90E+02,-132.95453,-1.523078,2.4576437
6.95E+02,-132.98123,-1.5223373,2.4714234
7.00E+02,-132.97742,-1.5260061,2.4545512
7.05E+02,-132.97742,-1.5280067,2.4661314
7.10E+02,-132.92781,-1.5275751,2.4738631
7.15E+02,-132.96596,-1.5269033,2.4819729
7.20E+02,-132.97742,-1.5279417,2.4931064
7.25E+02,-133.00032,-1.5280256,2.4525924
7.30E+02,-133.00797,-1.5247196,2.4596713
7.35E+02,-132.98123,-1.5230436,2.4704268
7.40E+02,-132.9278,-1.528522,2.4793613
7.45E+02,-132.99268,-1.5334545,2.4899452
7.50E+02,-132.98506,-1.5354091,2.4575408
7.55E+02,-132.98888,-1.5342562,2.4646883
7.60E+02,-132.98506,-1.5331185,2.473279
7.65E+02,-132.91252,-1.533947,2.4836566
7.70E+02,-133.00795,-1.5323473,2.487952
7.75E+02,-133.00031,-1.5317022,2.5009756
7.80E+02,-132.91254,-1.5355085,2.5088449
7.85E+02,-132.98506,-1.5424948,2.4576437
7.90E+02,-132.93925,-1.5421398,2.4691556
7.95E+02,-132.96979,-1.5392879,2.4704268
8.00E+02,-132.90491,-1.5376158,2.4751689
8.05E+02,-132.93163,-1.5351037,2.4904606
8.10E+02,-132.93544,-1.5368065,2.4931407
8.15E+02,-132.92781,-1.5458889,2.5062332
8.20E+02,-132.9507,-1.5455147,2.4882956
8.25E+02,-132.9507,-1.542281,2.4692585
8.30E+02,-132.93544,-1.5421206,2.4782958
8.35E+02,-132.98123,-1.5418574,2.483588
8.40E+02,-132.93925,-1.5423574,2.4989138
8.45E+02,-132.96977,-1.5382763,2.5050304
8.50E+02,-132.95451,-1.5400821,2.4788802
8.55E+02,-132.96216,-1.5367224,2.4917319
8.60E+02,-132.93163,-1.5389901,2.4863026
8.65E+02,-132.93925,-1.5451863,2.475925
8.70E+02,-132.94688,-1.5458316,2.4811482
8.75E+02,-132.93161,-1.5419489,2.495718
8.80E+02,-132.9736,-1.5413954,2.4786396
8.85E+02,-132.97742,-1.5423956,2.4924536
8.90E+02,-132.96979,-1.5460531,2.4932783
8.95E+02,-132.98506,-1.5492789,2.5037246
9.00E+02,-132.97742,-1.5515885,2.5126247
9.05E+02,-132.95451,-1.5523522,2.4677808
9.10E+02,-132.97742,-1.5477022,2.4790521
9.15E+02,-132.89345,-1.5456789,2.4920411
9.20E+02,-132.92017,-1.550493,2.5062675
9.25E+02,-132.96596,-1.555788,2.4756844
9.30E+02,-132.94305,-1.5593654,2.4815948
9.35E+02,-132.94688,-1.5563761,2.4919724
9.40E+02,-133.01939,-1.5503708,2.5003226
9.45E+02,-132.96596,-1.55533,2.4826601
9.50E+02,-132.92781,-1.5579146,2.4884331
9.55E+02,-132.94688,-1.5627326,2.5002882
9.60E+02,-132.93163,-1.5596823,2.4810107
9.65E+02,-132.9736,-1.5596861,2.4966116
9.70E+02,-132.91254,-1.5599915,2.4982953
9.75E+02,-132.94688,-1.5622096,2.5136557
9.80E+02,-132.9507,-1.564191,2.4821103
9.85E+02,-132.9736,-1.5680773,2.4865775
9.90E+02,-132.95451,-1.5692074,2.4991543
9.95E+02,-132.94307,-1.5709255,2.4838972
1.00E+03,-133.02702,-1.5696388,2.4985702
1.01E+03,-132.96216,-1.567436,2.5107348
1.01E+03,-132.9278,-1.5569067,2.5105286
1.02E+03,-132.96977,-1.5551201,2.5232773
1.02E+03,-132.97742,-1.557132,2.4928315
1.03E+03,-132.95834,-1.5546658,2.495821
1.03E+03,-132.96979,-1.5595639,2.5096006
1.04E+03,-132.9507,-1.5623356,2.4970582
1.04E+03,-132.92398,-1.5624959,2.5105286
1.05E+03,-132.98505,-1.5585903,2.5183289
1.05E+03,-132.93163,-1.5587621,2.5181916
1.06E+03,-132.9736,-1.5633014,2.5029688
1.06E+03,-132.9736,-1.5628166,2.5160952
1.07E+03,-132.94307,-1.5633434,2.5245831
1.07E+03,-132.94688,-1.5620645,2.5337236
1.08E+03,-133.00032,-1.5646911,2.5171261
1.08E+03,-132.93163,-1.5576284,2.4937937
1.09E+03,-132.96979,-1.557258,2.5013192
1.09E+03,-132.95834,-1.5585178,2.5129683
1.10E+03,-132.93924,-1.5574374,2.5233803
1.10E+03,-132.94307,-1.5599457,2.4991887
1.11E+03,-132.93925,-1.554093,2.5094976
1.11E+03,-132.9278,-1.5542458,2.5218339
1.12E+03,-133.00414,-1.555185,2.5096006
1.12E+03,-132.99268,-1.5536197,2.5202532
1.13E+03,-132.9736,-1.5542382,2.5223839
1.13E+03,-132.98506,-1.554723,2.5304248
1.14E+03,-132.91635,-1.5536082,2.543036
1.14E+03,-132.93544,-1.5584795,2.5169544
1.15E+03,-132.94688,-1.5585254,2.4969895
1.15E+03,-132.96216,-1.5587546,2.5058897
1.16E+03,-132.95453,-1.5597816,2.5105286
1.16E+03,-132.96597,-1.5541122,2.5208719
1.17E+03,-132.94307,-1.5514513,2.4988794
1.17E+03,-132.95834,-1.5461065,2.5065081
1.18E+03,-133.01559,-1.5434569,2.5220401
1.18E+03,-132.96597,-1.5412847,2.5297031
1.19E+03,-133.01939,-1.5442014,2.4994979
1.19E+03,-133.00414,-1.5417275,2.5051334
1.20E+03,-132.95451,-1.5448885,2.5171607
1.20E+03,-132.9507,-1.544503,2.5266793
1.21E+03,-132.95834,-1.5453506,2.5025563
1.21E+03,-132.91254,-1.5493362,2.5073328
1.22E+03,-132.92017,-1.549237,2.5133462
1.22E+03,-132.94307,-1.549947,2.5250297
1.23E+03,-132.93925,-1.5512183,2.504137
1.23E+03,-132.94307,-1.5523026,2.5076077
1.24E+03,-133.00795,-1.5518025,2.5190506
1.24E+03,-132.98888,-1.5488781,2.5291877
1.25E+03,-132.95451,-1.5513405,2.538775
1.25E+03,-132.93924,-1.5507067,2.5088449
1.26E+03,-132.92017,-1.5531615,2.5149958
1.26E+03,-132.98123,-1.5543259,2.5265417
1.27E+03,-132.93163,-1.5573802,2.5281224
1.27E+03,-132.99651,-1.5595944,2.5026937
1.28E+03,-132.93544,-1.5582964,2.5109408
1.28E+03,-132.90872,-1.5578879,2.5216966
1.29E+03,-132.93163,-1.5583613,2.5036902
1.29E+03,-132.96216,-1.5595868,2.5054085
1.30E+03,-132.96596,-1.5613353,2.5150645
1.30E+03,-132.93163,-1.5556202,2.5242393
1.31E+03,-133.02321,-1.5581474,2.5043087
1.31E+03,-132.9736,-1.5533448,2.5148926
1.32E+03,-133.0385,-1.5546466,2.528466
1.32E+03,-132.99268,-1.5516115,2.5089135
1.33E+03,-132.99651,-1.5510619,2.5122466
1.33E+03,-132.93925,-1.5513862,2.5208719
1.34E+03,-132.95834,-1.5563875,2.5322459
1.34E+03,-132.96596,-1.5559407,2.5111814
1.35E+03,-132.99649,-1.5576206,2.5159578
1.35E+03,-132.95834,-1.5562348,2.5320742
1.36E+03,-132.92781,-1.5568954,2.5287755
1.36E+03,-132.99268,-1.5558569,2.5219715
1.37E+03,-132.98888,-1.5557499,2.5277445
1.37E+03,-133.01559,-1.553864,2.5366101
1.38E+03,-132.98888,-1.5546428,2.5107005
1.38E+03,-133.01939,-1.5552574,2.5276756
1.39E+03,-132.9507,-1.559938,2.5301156
1.39E+03,-132.95833,-1.557716,2.539531
1.40E+03,-132.96216,-1.5573381,2.5516953
1.40E+03,-132.91254,-1.5588614,2.5660594
1.41E+03,-132.97742,-1.5591555,2.5085011
1.41E+03,-132.98505,-1.5595486,2.5213184
1.42E+03,-133.01939,-1.5621408,2.5339298
1.42E+03,-133.00414,-1.5598197,2.5397372
1.43E+03,-132.98888,-1.5618278,2.514549
1.43E+03,-132.91254,-1.5621141,2.5181229
1.44E+03,-132.90872,-1.5635878,2.5317304
1.44E+03,-133.03085,-1.5617056,2.5388093
1.45E+03,-132.99649,-1.5569106,2.5114563
1.45E+03,-132.96596,-1.556712,2.5234492
1.46E+03,-132.99651,-1.5572695,2.5338266
1.46E+03,-132.96216,-1.5574069,2.5470908
1.47E+03,-132.95833,-1.5609764,2.5336549
1.47E+03,-133.01559,-1.5602281,2.5167482
1.48E+03,-132.98125,-1.5631297,2.530184
1.48E+03,-133.00414,-1.5673406,2.5204251
1.49E+03,-132.9736,-1.5664053,2.5342047
1.49E+03,-132.99649,-1.5672146,2.5462317
1.50E+03,-132.93544,-1.5686042,2.5164733
1.50E+03,-132.95453,-1.5703413,2.521353
1.51E+03,-133.02321,-1.569005,2.5323834
1.51E+03,-132.96597,-1.5696884,2.5408025
1.52E+03,-132.94688,-1.5682759,2.5139306
1.52E+03,-132.93163,-1.5650537,2.5216966
1.53E+03,-132.98505,-1.5664665,2.5371943
1.53E+03,-132.98506,-1.5659547,2.5462661
1.54E+03,-132.9736,-1.5727197,2.5176415
1.54E+03,-133.01939,-1.5668442,2.5257857
1.55E+03,-132.9507,-1.5636259,2.5364382
1.55E+03,-133.01939,-1.5694556,2.517092
1.56E+03,-132.98506,-1.5662372,2.5197723
1.56E+03,-132.9736,-1.5654699,2.5358541
1.57E+03,-132.94307,-1.5656685,2.5218339
1.57E+03,-132.99268,-1.5631105,2.5348232
1.58E+03,-132.96977,-1.5656035,2.5196691
1.58E+03,-133.00031,-1.5625799,2.5257857
1.59E+03,-132.93544,-1.5643857,2.5239646
1.59E+03,-133.01559,-1.5650615,2.5313525
1.60E+03,-133.06522,-1.5665504,2.5366788
1.60E+03,-132.98506,-1.5670733,2.5176761
1.61E+03,-132.96596,-1.5660578,2.516336
1.61E+03,-132.98506,-1.571311,2.5334487
1.62E+03,-133.00032,-1.5717691,2.541352
1.62E+03,-133.05757,-1.575228,2.5206313
1.63E+03,-132.99651,-1.5697801,2.5404589
1.63E+03,-132.97742,-1.5711735,2.5452697
1.64E+03,-132.95834,-1.5721241,2.5560939
1.64E+03,-132.97742,-1.5773277,2.5253048
1.65E+03,-132.98125,-1.5778011,2.5286036
1.65E+03,-133.00414,-1.5738879,2.5387406
1.66E+03,-132.98506,-1.5685623,2.5494962
1.66E+03,-132.94305,-1.5656149,2.5243423
1.67E+03,-133.00032,-1.5652064,2.5327957
1.67E+03,-132.96979,-1.5702688,2.5385344
1.68E+03,-132.98123,-1.5747279,2.5539978
1.68E+03,-132.96596,-1.5759724,2.5552006
1.69E+03,-132.92398,-1.5692457,2.5305965
1.69E+03,-132.97742,-1.5723265,2.5323834
1.70E+03,-132.95451,-1.5728573,2.5419021
1.70E+03,-132.95834,-1.5688448,2.5481906
1.71E+03,-132.96979,-1.5717539,2.5380535
1.71E+03,-132.94305,-1.5707994,2.5499773
1.72E+03,-132.94307,-1.5722463,2.5587742
1.72E+03,-133.01559,-1.5732237,2.5745468
1.73E+03,-132.98125,-1.5759534,2.5835156
1.73E+03,-132.97742,-1.5812829,2.5407681
1.74E+03,-132.95453,-1.5810767,2.5286036
1.74E+03,-132.98123,-1.5822564,2.5470564
1.75E+03,-132.99268,-1.5845547,2.5335519
1.75E+03,-132.9507,-1.5872079,2.5450978
1.76E+03,-132.9736,-1.585261,2.5500462
1.76E+03,-132.99268,-1.5852877,2.5621419
1.77E+03,-132.98123,-1.5821419,2.5770898
1.77E+03,-132.95453,-1.5846845,2.5282941
1.78E+03,-132.96596,-1.5855473,2.5365758
1.78E+03,-133.00795,-1.5866773,2.5459912
1.79E+03,-132.95453,-1.5903003,2.5616264
1.79E+03,-132.98888,-1.5923198,2.5305965
1.80E+03,-132.9507,-1.5937171,2.5355449
1.80E+03,-132.94688,-1.5928124,2.5497024
1.81E+03,-132.96216,-1.5921099,2.5331738
1.81E+03,-132.9278,-1.5944006,2.5384657
1.82E+03,-133.00032,-1.5951221,2.5455101
1.82E+03,-132.95451,-1.5927322,2.5547881
1.83E+03,-133.00032,-1.5848067,2.5327272
1.83E+03,-133.01559,-1.5863719,2.5379846
1.84E+03,-132.95451,-1.5874599,2.5485685
1.84E+03,-132.97742,-1.5902278,2.5281224
1.85E+03,-132.98888,-1.5882694,2.5425205
1.85E+03,-132.98506,-1.5864903,2.5473313
1.86E+03,-132.98505,-1.5896437,2.5561283
1.86E+03,-132.91635,-1.5904721,2.5278819
1.87E+03,-132.95451,-1.5919801,2.5364382
1.87E+03,-132.91635,-1.5934958,2.5453384
1.88E+03,-132.92398,-1.5953894,2.5361633
1.88E+03,-132.94307,-1.5926979,2.5512831
1.89E+03,-132.9507,-1.5954543,2.5622795
1.89E+03,-132.93544,-1.5971683,2.5325894
1.90E+03,-133.00032,-1.5991918,2.5378816
1.90E+03,-132.98888,-1.6031736,2.5526576
1.91E+03,-133.00795,-1.6044871,2.5383971
1.91E+03,-132.96977,-1.6012267,2.5530014
1.92E+03,-132.96216,-1.5984894,2.561214
1.92E+03,-132.93163,-1.5960574,2.5731723
1.93E+03,-132.92781,-1.5952977,2.5804918
1.93E+03,-132.95451,-1.5907966,2.539531
1.94E+03,-132.98123,-1.5913578,2.5455444
1.94E+03,-132.96216,-1.5918504,2.5450635
1.95E+03,-132.96216,-1.5968478,2.5417991
1.95E+03,-132.94307,-1.5981381,2.550699
1.96E+03,-132.95453,-1.5964392,2.555716
1.96E+03,-132.96596,-1.5989323,2.5665405
1.97E+03,-132.9736,-1.603731,2.5391185
1.97E+03,-133.00032,-1.6019367,2.5459225
1.98E+03,-133.02704,-1.5971532,2.5605268
1.98E+03,-132.94305,-1.5969164,2.5666435
1.99E+03,-132.94688,-1.5996995,2.5719697
1.99E+03,-133.02321,-1.6029408,2.5787737
2.00E+03,-132.98123,-1.6032348,2.5433109
2.00E+03,-133.01939,-1.6044413,2.5502522
2.01E+03,-132.99268,-1.6094043,2.5606298
2.01E+03,-132.96216,-1.6050024,2.5735505
2.02E+03,-132.99651,-1.6038532,2.544651
2.02E+03,-132.98123,-1.6027576,2.5508707
2.03E+03,-132.97742,-1.6019367,2.5636196
2.03E+03,-132.96596,-1.6021506,2.5748219
2.04E+03,-132.98505,-1.6070411,2.5447543
2.04E+03,-132.99651,-1.6028569,2.5552006
2.05E+03,-132.96596,-1.5920031,2.5637913
2.05E+03,-132.92398,-1.592675,2.5453384
2.06E+03,-132.95451,-1.591877,2.5441356
2.06E+03,-132.94688,-1.5939654,2.5558534
2.07E+03,-132.98506,-1.5971417,2.5620387
2.07E+03,-132.93163,-1.5911441,2.5492899
2.08E+03,-132.97742,-1.5884182,2.5637226
2.08E+03,-132.96596,-1.589197,2.5712824
2.09E+03,-132.96977,-1.5912127,2.5795295
2.09E+03,-132.96216,-1.5895255,2.5593927
2.10E+03,-132.95833,-1.5897505,2.5546508
2.10E+03,-132.94688,-1.5892161,2.5615234
2.11E+03,-132.93544,-1.5866811,2.571523
2.11E+03,-132.91635,-1.5910982,2.545682
2.12E+03,-132.95453,-1.5981878,2.5590491
2.12E+03,-132.95451,-1.5999974,2.5699079
2.13E+03,-132.96596,-1.6011236,2.5810416
2.13E+03,-132.91254,-1.6025285,2.5728974
2.14E+03,-132.93544,-1.6018413,2.5615921
2.14E+03,-132.95834,-1.5991918,2.5631726
2.15E+03,-132.97742,-1.6028072,2.544548
2.15E+03,-132.9736,-1.6056323,2.5580182
2.16E+03,-132.9736,-1.6022308,2.5758529
2.16E+03,-132.96979,-1.6033608,2.5851994
2.17E+03,-132.9507,-1.6031203,2.5933435
2.17E+03,-132.87819,-1.6132869,2.582794
2.18E+03,-132.93924,-1.6097096,2.558465
2.18E+03,-132.92781,-1.6131494,2.5562315
2.19E+03,-132.93544,-1.6131494,2.5471253
2.19E+03,-132.96596,-1.6131418,2.5561969
2.20E+03,-132.91635,-1.6124814,2.5759213
2.20E+03,-132.99649,-1.6114925,2.5855775
2.21E+03,-132.9507,-1.6156539,2.5904913
2.21E+03,-132.96216,-1.6179788,2.6106968
2.22E+03,-132.96596,-1.6197693,2.5545478
2.22E+03,-132.92398,-1.6217622,2.5598741
2.23E+03,-132.9507,-1.6266031,2.5677774
2.23E+03,-132.93924,-1.626668,2.5383627
2.24E+03,-133.00031,-1.6246675,2.5444791
2.24E+03,-132.98123,-1.6192807,2.5528982
2.25E+03,-132.99649,-1.6172764,2.5577433
2.25E+03,-132.95451,-1.6206017,2.5475719
2.26E+03,-132.96216,-1.6228465,2.5596333
2.26E+03,-132.9736,-1.6235681,2.5652688
2.27E+03,-133.03848,-1.6242819,2.5797358
2.27E+03,-132.924,-1.6280042,2.5413179
2.28E+03,-132.96216,-1.6325779,2.5456133
2.28E+03,-132.93163,-1.6368766,2.554204
2.29E+03,-132.95834,-1.6322991,2.5501492
2.29E+03,-132.9736,-1.6220142,2.5480187
2.30E+03,-132.93924,-1.6246828,2.561867
2.30E+03,-132.95834,-1.6282219,2.5400465
2.31E+03,-132.95451,-1.6335666,2.5532763
2.31E+03,-132.9736,-1.6341584,2.5483966
2.32E+03,-132.9736,-1.6358343,2.5546851
2.32E+03,-132.95834,-1.6356511,2.5510769
2.33E+03,-132.99268,-1.6347387,2.5547881
2.33E+03,-132.95834,-1.6342041,2.5650284
2.34E+03,-132.97742,-1.626313,2.5693924
2.34E+03,-132.94688,-1.6281034,2.5700452
2.35E+03,-133.03467,-1.6303024,2.5598052
2.35E+03,-132.98506,-1.6271911,2.5714886
2.36E+03,-132.95453,-1.6216133,2.5823474
2.36E+03,-132.98506,-1.6217355,2.5460255
2.37E+03,-132.97742,-1.6229305,2.5581558
2.37E+03,-133.01559,-1.6229571,2.5667121
2.38E+03,-132.9507,-1.6292526,2.5700111
2.38E+03,-132.95834,-1.6256906,2.5563688
2.39E+03,-132.99649,-1.6254807,2.5631726
2.39E+03,-132.95453,-1.6266489,2.5719011
2.40E+03,-132.93924,-1.6326275,2.5517299
2.40E+03,-132.95451,-1.6314859,2.5687051
2.41E+03,-132.94305,-1.6241444,2.5845466
2.41E+03,-132.9736,-1.6212697,2.5915222
2.42E+03,-132.92398,-1.6207925,2.6034462
2.42E+03,-132.95834,-1.6213307,2.5552692
2.43E+03,-132.95834,-1.6175321,2.5632071
2.43E+03,-132.88582,-1.6163944,2.577193
2.44E+03,-132.96216,-1.6040136,2.5832407
2.44E+03,-132.95834,-1.6051208,2.5629323
2.45E+03,-132.93544,-1.6060637,2.5750623
2.45E+03,-132.91254,-1.60987,2.5801823
2.46E+03,-132.95834,-1.6140313,2.5576746
2.46E+03,-132.92398,-1.6142795,2.5688426
2.47E+03,-132.95453,-1.6145773,2.5749936
2.47E+03,-132.95453,-1.6203763,2.5866427
2.48E+03,-132.95834,-1.6180894,2.5527608
2.48E+03,-132.92398,-1.6161845,2.5568156
2.49E+03,-132.96979,-1.6154286,2.5674338
2.49E+03,-132.93544,-1.6135082,2.5698392
2.50E+03,-132.89345,-1.6094805,2.5555785
2.50E+03,-132.9736,-1.614184,2.5690143
2.51E+03,-132.93544,-1.6198877,2.5754061
2.51E+03,-132.89726,-1.6203268,2.5715575
2.52E+03,-132.924,-1.6165015,2.5625887
2.52E+03,-132.93924,-1.6172153,2.5698049
2.53E+03,-132.92781,-1.6214033,2.5784299
2.53E+03,-132.94307,-1.618834,2.588361
2.54E+03,-132.93544,-1.6203496,2.5524859
2.54E+03,-132.93163,-1.619903,2.5561969
2.55E+03,-132.86673,-1.6203916,2.5699766
2.55E+03,-132.96597,-1.6230297,2.562829
2.56E+03,-132.93924,-1.6182003,2.5575716
2.56E+03,-132.89728,-1.6229343,2.5637226
2.57E+03,-132.96979,-1.6283247,2.5767119
2.57E+03,-132.90109,-1.6299665,2.5559564
2.58E+03,-132.93163,-1.6288555,2.5666778
2.58E+03,-133.00031,-1.6308637,2.5801823
2.59E+03,-132.9507,-1.6256105,2.5865054
2.59E+03,-132.98888,-1.6233084,2.6010065
2.60E+03,-132.94307,-1.6246179,2.5606642
2.60E+03,-132.95834,-1.622835,2.5724506
2.61E+03,-132.93163,-1.6230869,2.5824504
2.61E+03,-132.98888,-1.6217469,2.5924156
2.62E+03,-132.95453,-1.6131723,2.5956457
2.62E+03,-132.94307,-1.6139359,2.60324
2.63E+03,-132.93163,-1.6160547,2.5754061
2.63E+03,-132.96979,-1.6165396,2.5573654
2.64E+03,-132.93163,-1.6207887,2.5635164
2.64E+03,-132.93925,-1.6243162,2.5759559
2.65E+03,-132.92017,-1.6266451,2.5884295
2.65E+03,-133.00032,-1.6308407,2.5622795
2.66E+03,-132.95451,-1.6276529,2.568018
2.66E+03,-132.97742,-1.6236672,2.5789797
2.67E+03,-133.00414,-1.6236825,2.5648565
2.67E+03,-132.93925,-1.6215217,2.574856
2.68E+03,-132.98888,-1.6241636,2.5854745
2.68E+03,-132.95453,-1.6208459,2.5935497
2.69E+03,-132.92781,-1.620029,2.6034462
2.69E+03,-132.90109,-1.6167762,2.615267
2.70E+03,-132.93544,-1.6125118,2.6277752
2.70E+03,-132.93163,-1.6101297,2.5588431
2.71E+03,-132.93163,-1.6100188,2.5599425
2.71E+03,-132.96216,-1.6081406,2.5714197
2.72E+03,-132.90872,-1.6045367,2.5632758
2.72E+03,-132.92781,-1.605556,2.5564377
2.73E+03,-132.9736,-1.6070907,2.5669527
2.73E+03,-132.9507,-1.611859,2.5786362
2.74E+03,-132.94307,-1.6148292,2.5603206
2.74E+03,-132.92398,-1.6186851,2.5706296
2.75E+03,-132.98506,-1.6176391,2.5792203
2.75E+03,-132.88963,-1.6210254,2.5623479
2.76E+03,-132.92017,-1.6201053,2.573894
2.76E+03,-132.98506,-1.6232893,2.557709
2.77E+03,-132.96979,-1.6231672,2.5595646
2.77E+03,-132.93544,-1.6175131,2.5739629
2.78E+03,-132.96216,-1.6180131,2.5610766
2.78E+03,-132.9736,-1.6219301,2.5717978
2.79E+03,-132.94688,-1.6198839,2.5786362
2.79E+03,-132.9736,-1.6153064,2.5775366
2.80E+03,-132.87056,-1.6141917,2.5788767
2.80E+03,-132.93924,-1.6109734,2.5897698
2.81E+03,-132.93924,-1.6099807,2.5941682
2.81E+03,-132.91635,-1.6105647,2.6020374
2.82E+03,-132.8362,-1.6095418,2.6147861
2.82E+03,-132.96596,-1.6171352,2.5614545
2.83E+03,-132.93544,-1.6226326,2.5717292
2.83E+03,-132.99268,-1.6237437,2.5804574
2.84E+03,-132.88963,-1.6185706,2.571523
2.84E+03,-132.97742,-1.6200862,2.5833094
2.85E+03,-132.94688,-1.6261373,2.5866427
2.85E+03,-132.90109,-1.6260304,2.6001475
2.86E+03,-132.96977,-1.6250874,2.5612826
2.86E+03,-132.92781,-1.6281874,2.5728288
2.87E+03,-132.95834,-1.6193074,2.578052
2.87E+03,-132.98123,-1.6118324,2.5926907
2.88E+03,-132.92781,-1.6072052,2.580801
2.88E+03,-132.93924,-1.6061324,2.5779488
2.89E+03,-132.90109,-1.6004937,2.5875704
2.89E+03,-132.95834,-1.6015664,2.5966425
2.90E+03,-132.92398,-1.5994591,2.603996
2.90E+03,-132.96979,-1.6068769,2.5650971
2.91E+03,-132.9507,-1.6072968,2.566025
2.91E+03,-132.93544,-1.606789,2.5765057
2.92E+03,-132.93924,-1.6049948,2.5820038
2.92E+03,-132.91254,-1.6019101,2.5902164
2.93E+03,-132.98506,-1.6039603,2.5679836
2.93E+03,-132.91254,-1.6058576,2.5676057
2.94E+03,-132.96216,-1.6046321,2.5848901
2.94E+03,-133.00414,-1.6057163,2.5772274
2.95E+03,-132.94688,-1.6056399,2.5788767
2.95E+03,-132.91254,-1.6028148,2.584306
2.96E+03,-132.92781,-1.6014061,2.5906975
2.96E+03,-132.96216,-1.6026354,2.5722103
2.97E+03,-132.97742,-1.6031585,2.588464
2.97E+03,-132.91252,-1.6042579,2.5953021
2.98E+03,-132.92781,-1.6037846,2.6070545
2.98E+03,-132.92017,-1.6069914,2.6024497
2.99E+03,-132.99268,-1.6121262,2.5791173
2.99E+03,-133.00414,-1.6170816,2.5826223
3.00E+03,-132.93925,-1.6201931,2.5936873
3.00E+03,-132.96979,-1.6240261,2.5728974
3.01E+03,-132.94688,-1.6236291,2.5816946
3.01E+03,-132.96596,-1.6252631,2.5888076
3.02E+03,-132.94688,-1.6236061,2.5993915
3.02E+03,-132.9507,-1.624992,2.611659
3.03E+03,-132.97742,-1.6275766,2.5782237
3.03E+03,-132.97742,-1.6313714,2.5848215
3.04E+03,-132.92398,-1.6342882,2.5955083
3.04E+03,-132.9736,-1.6281798,2.5857148
3.05E+03,-132.91635,-1.6290196,2.5913849
3.05E+03,-132.91635,-1.6235412,2.599082
3.06E+03,-132.90872,-1.626687,2.5723133
3.06E+03,-132.98505,-1.6247514,2.5912819
3.07E+03,-132.89726,-1.6235145,2.5991852
3.07E+03,-132.97742,-1.6255609,2.6041679
3.08E+03,-132.9507,-1.6300466,2.5810416
3.08E+03,-132.9736,-1.6260381,2.584203
3.09E+03,-132.98506,-1.6271337,2.5911443
3.09E+03,-132.97742,-1.6247324,2.5724852
3.10E+03,-132.95834,-1.6237245,2.5909038
3.10E+03,-132.96979,-1.621789,2.592828
3.11E+03,-133.00795,-1.6225028,2.6074324
3.11E+03,-132.95834,-1.6217508,2.5807667
3.12E+03,-132.93544,-1.6205214,2.5864022
3.12E+03,-132.97742,-1.6223463,2.5975358
3.13E+03,-132.96596,-1.6171542,2.6043398
3.13E+03,-132.95833,-1.6130425,2.6174664
3.14E+03,-132.95834,-1.6179942,2.5813851
3.14E+03,-132.91252,-1.6125501,2.5888762
3.15E+03,-132.92017,-1.6153675,2.5795639
3.15E+03,-132.98123,-1.6155126,2.5967112
3.16E+03,-132.95834,-1.6139358,2.6008689
3.16E+03,-132.94688,-1.6170588,2.6093223
3.17E+03,-132.97742,-1.6185821,2.6199405
3.17E+03,-132.99649,-1.6203306,2.6313491
3.18E+03,-132.9736,-1.6258434,2.575887
3.18E+03,-132.9736,-1.6233962,2.5823474
3.19E+03,-132.9736,-1.624301,2.5965049
3.19E+03,-132.93924,-1.6264733,2.6041679
3.20E+03,-132.98123,-1.6235145,2.6180162
3.20E+03,-132.91635,-1.6221592,2.5817287
3.21E+03,-132.91252,-1.6171199,2.5886014
3.21E+03,-132.94688,-1.6165243,2.5993228
3.22E+03,-132.99649,-1.6199182,2.5871582
3.22E+03,-132.92017,-1.6241177,2.6021748
3.23E+03,-132.96216,-1.6235832,2.6089787
3.23E+03,-132.92398,-1.6299779,2.5847185
3.24E+03,-132.93924,-1.6294664,2.5945807
3.24E+03,-132.98125,-1.6304246,2.60513
3.25E+03,-132.98125,-1.6324098,2.6121745
3.25E+03,-132.89726,-1.6332116,2.5824161
3.26E+03,-132.9507,-1.6302567,2.588361
3.26E+03,-132.90109,-1.6310623,2.6053362
3.27E+03,-132.93925,-1.6281683,2.6142707
3.27E+03,-132.95451,-1.6322916,2.596333
3.28E+03,-132.95834,-1.6331428,2.598979
3.28E+03,-132.9507,-1.6226975,2.6104908
3.29E+03,-132.90872,-1.626248,2.6208684
3.29E+03,-132.93163,-1.6232703,2.5838249
3.30E+03,-132.96977,-1.6180398,2.5900102
3.30E+03,-132.92017,-1.6138595,2.6036181
3.31E+03,-132.90872,-1.6175742,2.6177757
3.31E+03,-132.93544,-1.6237168,2.5806637
3.32E+03,-132.89726,-1.6239496,2.5847871
3.32E+03,-132.93544,-1.6246332,2.5966425
3.33E+03,-132.92781,-1.6267406,2.5874331
3.33E+03,-132.98123,-1.6310431,2.594512
3.34E+03,-132.94688,-1.6288441,2.6075354
3.34E+03,-132.95451,-1.6317799,2.6073291
3.35E+03,-133.00414,-1.6311157,2.6213839
3.35E+03,-132.9507,-1.6317608,2.6160917
3.36E+03,-132.97742,-1.6354067,2.5879829
3.36E+03,-132.95834,-1.64116,2.5965049
3.37E+03,-132.97742,-1.6426451,2.6062984
3.37E+03,-132.96216,-1.632215,2.5977421
3.38E+03,-133.03848,-1.6286991,2.5923812
3.38E+03,-132.96977,-1.6257823,2.6006973
3.39E+03,-132.98888,-1.6265076,2.6091161
3.39E+03,-132.93924,-1.6326809,2.5820038
3.40E+03,-133.06903,-1.631547,2.5864022
3.40E+03,-133.00414,-1.634586,2.5935154
3.41E+03,-133.00795,-1.6355823,2.6046491
3.41E+03,-132.99268,-1.6388732,2.6197343
3.42E+03,-132.99268,-1.6435881,2.5806637
3.42E+03,-132.93925,-1.6435728,2.5947866
3.43E+03,-132.99649,-1.636659,2.6053019
3.43E+03,-132.95834,-1.6351013,2.6182225
3.44E+03,-132.93924,-1.6385449,2.5894263
3.44E+03,-132.92398,-1.6365063,2.5933781
3.45E+03,-133.00795,-1.6391672,2.5998383
3.45E+03,-132.99268,-1.6370407,2.619494
3.46E+03,-132.94307,-1.6322037,2.5866427
3.46E+03,-132.99268,-1.6298329,2.5942025
3.47E+03,-132.95834,-1.6268818,2.6079822
3.47E+03,-132.92781,-1.6253548,2.5897698
3.48E+03,-132.95834,-1.6293824,2.5954053
3.48E+03,-132.95834,-1.631024,2.601419
3.49E+03,-132.93925,-1.6317685,2.6118996
3.49E+03,-132.96596,-1.635254,2.5890138
3.50E+03,-132.99268,-1.6362123,2.5936184
3.50E+03,-132.92398,-1.6269886,2.6052675
3.51E+03,-132.98123,-1.6309514,2.6180849
3.51E+03,-132.95451,-1.6327763,2.5948212
3.52E+03,-132.94688,-1.6333146,2.6024153
3.52E+03,-132.98506,-1.625851,2.6138582
3.53E+03,-132.98886,-1.6271949,2.6239266
3.53E+03,-132.98886,-1.6256602,2.6346478
3.54E+03,-133.00414,-1.6238848,2.5947526
3.54E+03,-132.99649,-1.6222738,2.6083946
3.55E+03,-133.00414,-1.6230105,2.6201811
3.55E+03,-132.96979,-1.6276873,2.6260915
3.56E+03,-133.04613,-1.6346623,2.594512
3.56E+03,-132.9507,-1.6345057,2.6020374
3.57E+03,-132.93544,-1.632364,2.6124494
3.57E+03,-132.96216,-1.6271833,2.6229303
3.58E+03,-132.96216,-1.6248585,2.6334796
3.58E+03,-133.02321,-1.6303024,2.5913162
3.59E+03,-132.96216,-1.6298138,2.594718
3.59E+03,-132.97742,-1.6221707,2.6035836
3.60E+03,-132.96597,-1.6210177,2.5897698
3.60E+03,-132.91254,-1.6238734,2.6009378
3.61E+03,-132.97742,-1.6221783,2.6085663
3.61E+03,-132.94305,-1.6247667,2.6174664
3.62E+03,-132.93924,-1.626565,2.6311085
3.62E+03,-132.95834,-1.6306498,2.5958865
3.63E+03,-132.98123,-1.6326199,2.6033432
3.63E+03,-132.95834,-1.6349524,2.6146486
3.64E+03,-132.94305,-1.6339483,2.6069856
3.64E+03,-132.89345,-1.634143,2.6156795
3.65E+03,-132.93163,-1.6332917,2.6244078
3.65E+03,-132.98888,-1.6358305,2.6177413
3.66E+03,-132.96216,-1.6332498,2.6052675
3.66E+03,-132.94307,-1.632467,2.6164355
3.67E+03,-132.9736,-1.6319059,2.6223459
3.67E+03,-132.84001,-1.6291915,2.6325176
3.68E+03,-132.96216,-1.6248355,2.6188753
3.68E+03,-133.01559,-1.6236788,2.5887389
3.69E+03,-132.96977,-1.6216592,2.5909724
3.69E+03,-132.9507,-1.6231251,2.606642
3.70E+03,-132.96216,-1.6215332,2.5949929
3.70E+03,-132.9736,-1.6206857,2.6083946
3.71E+03,-132.89728,-1.6190898,2.6157138
3.71E+03,-133.02702,-1.6196853,2.6269505
3.72E+03,-132.98123,-1.6162418,2.6375346
3.72E+03,-133.01176,-1.6168679,2.594718
3.73E+03,-133.00032,-1.6142986,2.590354
3.73E+03,-132.9736,-1.6153523,2.6012471
3.74E+03,-133.01176,-1.6139091,2.6062641
3.74E+03,-133.0385,-1.6065753,2.6192188
3.75E+03,-132.9278,-1.6061171,2.5886357
3.75E+03,-132.90109,-1.6084995,2.5970547
3.76E+03,-132.98506,-1.6076099,2.6135833
3.76E+03,-132.98506,-1.6091905,2.6175351
3.77E+03,-132.93925,-1.6071633,2.5911443
3.77E+03,-132.99649,-1.6084651,2.6002162
3.78E+03,-132.97742,-1.6129127,2.6113498
3.78E+03,-132.93544,-1.6154209,2.5986011
3.79E+03,-132.97742,-1.6120117,2.6136177
3.79E+03,-132.95834,-1.6168946,2.6181879
3.80E+03,-132.92781,-1.6162761,2.6270537
3.80E+03,-132.93925,-1.6149399,2.6408677
3.81E+03,-132.95834,-1.6154133,2.619597
3.81E+03,-132.94307,-1.6163601,2.592725
3.82E+03,-132.93544,-1.6159707,2.6027935
3.82E+03,-132.94688,-1.6167113,2.6002162
3.83E+03,-132.9507,-1.6110954,2.6077416
3.83E+03,-132.96216,-1.6125615,2.5898728
3.84E+03,-132.97742,-1.6144437,2.5977421
3.84E+03,-132.96597,-1.6137947,2.6095285
3.85E+03,-132.9507,-1.6126379,2.5981889
3.85E+03,-132.9507,-1.6154743,2.6003191
3.86E+03,-132.94305,-1.6176467,2.6063671
3.86E+03,-132.93924,-1.6189065,2.6162293
3.87E+03,-132.96216,-1.618204,2.6244421
3.87E+03,-132.99268,-1.6224494,2.5933092
3.88E+03,-132.94307,-1.623106,2.5978451
3.88E+03,-132.92781,-1.6225449,2.6115215
3.89E+03,-132.882,-1.6210902,2.5962644
3.89E+03,-132.95451,-1.6210482,2.6155078
3.90E+03,-132.98123,-1.6220982,2.6257136
3.90E+03,-132.95834,-1.621659,2.636744
3.91E+03,-132.96977,-1.618292,2.6437199
3.91E+03,-132.98888,-1.6118667,2.6005254
3.92E+03,-132.98506,-1.6110649,2.6090474
3.92E+03,-133.00795,-1.6118628,2.6178787
3.93E+03,-133.00414,-1.6155506,2.6012127
3.93E+03,-132.95451,-1.6137183,2.6148548
3.94E+03,-132.99651,-1.6131991,2.6294935
3.94E+03,-132.97742,-1.6156882,2.628772
3.95E+03,-132.9736,-1.6157683,2.6350603
3.95E+03,-133.00797,-1.6183797,2.6017625
3.96E+03,-132.99651,-1.6225945,2.6103189
3.96E+03,-132.9736,-1.6211551,2.6200778
3.97E+03,-133.00414,-1.6207658,2.6318989
3.97E+03,-132.93544,-1.6198839,2.5999413
3.98E+03,-133.03085,-1.622686,2.6102846
3.98E+03,-132.95834,-1.621495,2.628325
3.99E+03,-132.94688,-1.6108016,2.6345448
3.99E+03,-132.99649,-1.6085414,2.6424139
4.00E+03,-132.99268,-1.6125157,2.5984635
4.00E+03,-132.9736,-1.6160203,2.6051989
4.01E+03,-132.94307,-1.6178414,2.6123807
4.01E+03,-132.94305,-1.6181431,2.6278784
4.02E+03,-133.00795,-1.6168145,2.6087725
4.02E+03,-132.96597,-1.6172993,2.6127243
4.03E+03,-132.96596,-1.6190706,2.6306274
4.03E+03,-132.97742,-1.6210026,2.6166072
4.04E+03,-132.89728,-1.6228311,2.6077073
4.04E+03,-132.91254,-1.6245339,2.6091506
4.05E+03,-132.92398,-1.6246483,2.6191845
4.05E+03,-132.97742,-1.6245185,2.6347511
4.06E+03,-132.93924,-1.6162035,2.6396306
4.06E+03,-132.94307,-1.618166,2.6075699
4.07E+03,-133.01178,-1.6174749,2.6155078
4.07E+03,-132.96216,-1.6195441,2.6265726
4.08E+03,-132.9736,-1.6194868,2.6364348
4.08E+03,-132.93163,-1.6207925,2.601419
4.09E+03,-132.92017,-1.6211323,2.6053362
4.09E+03,-132.90872,-1.6248201,2.6173632
4.10E+03,-132.96596,-1.6245415,2.6008003
4.10E+03,-132.89726,-1.6218042,2.6192534
4.11E+03,-132.9507,-1.6214033,2.6360912
4.11E+03,-132.90491,-1.6193188,2.6405585
4.12E+03,-132.9736,-1.6206627,2.6324143
4.12E+03,-132.9507,-1.6203954,2.607295
4.13E+03,-132.92781,-1.6219989,2.6148205
4.13E+03,-132.98506,-1.6134052,2.6251981
4.14E+03,-132.9278,-1.6143405,2.6079822
4.14E+03,-132.98506,-1.6103929,2.618669
4.15E+03,-132.95834,-1.6136153,2.628875
4.15E+03,-132.94307,-1.6151996,2.6318645
4.16E+03,-133.01176,-1.6165816,2.6078446
4.16E+03,-132.95834,-1.6213269,2.6070545
4.17E+03,-132.92781,-1.6230145,2.6165731
4.17E+03,-132.96979,-1.626565,2.5930343
4.18E+03,-132.94688,-1.6273743,2.6025183
4.18E+03,-132.98505,-1.6289357,2.6119339
4.19E+03,-132.95834,-1.6285539,2.6053362
4.19E+03,-132.9507,-1.6281264,2.6058517
4.20E+03,-132.95833,-1.6301802,2.6183598
4.20E+03,-133.00414,-1.6293327,2.6374657
4.21E+03,-132.92398,-1.6315546,2.6012471
4.21E+03,-132.97742,-1.6211208,2.6069169
4.22E+03,-132.92398,-1.6187347,2.6192877
4.22E+03,-132.95834,-1.6181049,2.632483
4.23E+03,-133.01559,-1.6229839,2.6007316
4.23E+03,-132.95833,-1.619002,2.6071575
4.24E+03,-132.88963,-1.6219112,2.6159887
4.24E+03,-132.98506,-1.6229495,2.6230333
4.25E+03,-132.95834,-1.6198229,2.6350946
4.25E+03,-132.93544,-1.6194181,2.5991166
4.26E+03,-132.92781,-1.6170015,2.6070888
4.26E+03,-132.96977,-1.6176772,2.6139615
4.27E+03,-132.93163,-1.6222662,2.6256104
4.27E+03,-132.93163,-1.6223844,2.6325519
4.28E+03,-132.91635,-1.6263435,2.6062984
4.28E+03,-132.93924,-1.6225334,2.6140988
4.29E+03,-132.98888,-1.61586,2.6212463
4.29E+03,-132.93924,-1.6162493,2.6313834
4.30E+03,-132.924,-1.6175092,2.6082571
4.30E+03,-132.93925,-1.618017,2.6088068
4.31E+03,-132.98505,-1.6196969,2.6260571
4.31E+03,-132.9278,-1.6211513,2.6095972
4.32E+03,-132.90491,-1.6278744,2.6216588
4.32E+03,-132.93544,-1.6258816,2.6227584
4.33E+03,-132.9507,-1.6245034,2.6352665
4.33E+03,-132.92398,-1.625244,2.6450944
4.34E+03,-132.91635,-1.6206131,2.6550252
4.34E+03,-132.94688,-1.6214721,2.6648188
4.35E+03,-132.95451,-1.6243124,2.6001818
4.35E+03,-132.94688,-1.6243507,2.6108687
4.36E+03,-132.95834,-1.6152301,2.6189439
4.36E+03,-133.01178,-1.61854,2.6296997
4.37E+03,-132.9507,-1.6178528,2.6335139
4.37E+03,-132.95834,-1.6210788,2.6078446
4.38E+03,-132.96596,-1.6197426,2.6171227
4.38E+03,-132.96596,-1.6219531,2.6266758
4.39E+03,-132.98123,-1.6257173,2.6362286
4.39E+03,-132.93163,-1.6264313,2.6005597
4.40E+03,-132.98888,-1.6262442,2.5967455
4.40E+03,-132.96979,-1.6281531,2.6065733
4.41E+03,-132.96216,-1.6277713,2.617157
4.41E+03,-132.99268,-1.6300733,2.6028278
4.42E+03,-132.95834,-1.6317188,2.6092193
4.42E+03,-132.96979,-1.6275842,2.6202841
4.43E+03,-132.99649,-1.6263626,2.6303868
4.43E+03,-133.00414,-1.621556,2.5988417
4.44E+03,-132.96596,-1.6246523,2.6033432
4.44E+03,-132.95453,-1.6225678,2.6115561
4.45E+03,-132.98505,-1.623106,2.5997694
4.45E+03,-132.96216,-1.6229496,2.6175008
4.46E+03,-132.94688,-1.6254234,2.6228614
4.46E+03,-132.89726,-1.6240758,2.6362286
4.47E+03,-132.92398,-1.6228349,2.647912
4.47E+03,-132.92398,-1.6268817,2.613549
4.48E+03,-132.9736,-1.6281416,2.6184287
4.48E+03,-132.97742,-1.628657,2.6303525
4.49E+03,-132.93924,-1.6309668,2.610147
4.49E+03,-132.98123,-1.6297832,2.6155078
4.50E+03,-132.92781,-1.6231862,2.6224148
4.50E+03,-132.95451,-1.6244117,2.6126554
4.51E+03,-132.93924,-1.6245147,2.6147516
4.51E+03,-133.02321,-1.6293175,2.6181536
4.52E+03,-132.98888,-1.6310736,2.6273286
4.52E+03,-132.95834,-1.631734,2.6024153
4.53E+03,-133.03848,-1.6334292,2.6158857
4.53E+03,-132.94307,-1.6325243,2.6181879
